 h2so4 RRTMG LUT interpolated from GADS (DAR 09/2013)
 V0.1 - contains Fast-J wavelengths but is the same as the original jv_spec.dat values
  w(nm)   RH       N         iK    RgDry    RgWet      Sg         Q  Alpha  r-eff ss-alb  g-sym  pi(0)  pi(1)  pi(2)  pi(3)  pi(4)  pi(5)  pi(6)  pi(7)
  300.0    0  1.4690  0.100E-07  0.12700  0.12700    0.60  0.000000  0.990  0.127  0.160  0.000  1.000  0.000  0.500  0.000  0.000  0.000 -0.000  0.000
  400.0    0  1.4400  0.100E-07  0.12700  0.12700    0.60  0.000000  0.990  0.127  0.066  0.000  1.000  0.000  0.500  0.000  0.000  0.000 -0.000 -0.000
  440.0    0  1.4330  0.998E-08  0.12700  0.12700    0.60  0.000000  0.990  0.127  0.049  0.000  1.000  0.000  0.500  0.000  0.000  0.000 -0.000 -0.000
  500.0    0  1.4310  0.100E-07  0.12700  0.12700    0.60  0.000000  0.990  0.127  0.033  0.000  1.000  0.000  0.500  0.000  0.000  0.000 -0.000 -0.000
  550.0    0  1.4300  0.100E-07  0.12700  0.12700    0.60  0.000000  0.990  0.127  0.025  0.000  1.000  0.000  0.500  0.000  0.000 -0.000  0.000 -0.000
  600.0    0  1.4290  0.147E-07  0.12700  0.12700    0.60  0.000000  0.990  0.127  0.013  0.000  1.000  0.000  0.500  0.000  0.000  0.000 -0.000  0.000
  675.0    0  1.4286  0.161E-07  0.12700  0.12700    0.60  0.000000  0.990  0.127  0.009  0.000  1.000  0.000  0.500  0.000  0.000 -0.000 -0.000  0.000
  800.0    0  1.4260  0.863E-07  0.12700  0.12700    0.60  0.000000  0.990  0.127  0.001  0.000  1.000  0.000  0.500  0.000  0.000  0.000 -0.000  0.000
  870.0    0  1.4254  0.181E-06  0.12700  0.12700    0.60  0.000000  0.990  0.127  0.000  0.000  1.000  0.000  0.500  0.000  0.000  0.000 -0.000  0.000
 1000.0    0  1.4220  0.153E-05  0.12700  0.12700    0.60  0.000000  0.990  0.127  0.000  0.000  1.000  0.000  0.500  0.000  0.000 -0.000  0.000 -0.000
 1020.0    0  1.4213  0.222E-07  0.12700  0.12700    0.60  0.000000  0.990  0.127  0.002  0.000  1.000  0.000  0.500  0.000  0.000  0.000 -0.000 -0.000
55555.6    0  1.9000  0.190E+00  0.12700  0.12700    0.60  0.000000  0.990  0.127  0.000 -0.000  1.000 -0.000  0.500  0.000 -0.000  0.000 -0.000 -0.000
23529.4    0  1.9155  0.188E-01  0.12700  0.12700    0.60  0.000000  0.990  0.127  0.000 -0.000  1.000 -0.000  0.500  0.000 -0.000  0.000 -0.000 -0.000
17699.1    0  1.8923  0.236E+00  0.12700  0.12700    0.60  0.000001  0.990  0.127  0.000  0.000  1.000  0.000  0.200  0.000 -0.000 -0.000 -0.000 -0.000
15037.6    0  1.5858  0.212E+00  0.12700  0.12700    0.60  0.000001  0.990  0.127  0.000 -0.000  1.000 -0.000  0.500  0.000 -0.000 -0.000 -0.000  0.000
13157.9    0  1.6817  0.196E+00  0.12700  0.12700    0.60  0.000001  0.990  0.127  0.000 -0.000  1.000 -0.000  0.500  0.000 -0.000  0.000  0.000  0.000
11111.1    0  1.7044  0.486E+00  0.12700  0.12700    0.60  0.000003  0.990  0.127  0.000  0.000  1.000  0.000  0.500  0.000 -0.000  0.000 -0.000  0.000
 9708.7    0  1.8565  0.744E+00  0.12700  0.12700    0.60  0.000004  0.990  0.127  0.000 -0.000  1.000 -0.000  0.200  0.000 -0.000  0.000 -0.000 -0.000
 8849.6    0  1.6203  0.715E+00  0.12700  0.12700    0.60  0.000006  0.990  0.127  0.000  0.000  1.000  0.000  0.500  0.000 -0.000  0.000  0.000  0.000
 7782.1    0  1.1366  0.425E+00  0.12700  0.12700    0.60  0.000006  0.990  0.127  0.000 -0.000  1.000 -0.000  0.200  0.000 -0.000 -0.000 -0.000 -0.000
 6968.6    0  1.2605  0.132E+00  0.12700  0.12700    0.60  0.000002  0.990  0.127  0.000 -0.000  1.000 -0.000  0.200  0.000 -0.000 -0.000 -0.000 -0.000
 6097.6    0  1.4291  0.182E+00  0.12700  0.12700    0.60  0.000003  0.990  0.127  0.000 -0.000  1.000 -0.000  0.200  0.000 -0.000 -0.000  0.000 -0.000
 5154.6    0  1.3446  0.136E+00  0.12700  0.12700    0.60  0.000002  0.990  0.127  0.000  0.000  1.000  0.000  0.200  0.000 -0.000 -0.000 -0.000  0.000
 4618.9    0  1.3832  0.117E+00  0.12700  0.12700    0.60  0.000002  0.990  0.127  0.000  0.000  1.000  0.000  0.200  0.000 -0.000  0.000 -0.000 -0.000
 4319.7    0  1.3837  0.124E+00  0.12700  0.12700    0.60  0.000003  0.990  0.127  0.000  0.000  1.000  0.000  0.200  0.000 -0.000 -0.000 -0.000  0.000
 4016.1    0  1.3844  0.126E+00  0.12700  0.12700    0.60  0.000003  0.990  0.127  0.000 -0.000  1.000 -0.000  0.200  0.000 -0.000 -0.000 -0.000 -0.000
 3418.8    0  1.3572  0.159E+00  0.12700  0.12700    0.60  0.000004  0.990  0.127  0.000  0.000  1.000  0.000  0.200  0.000 -0.000 -0.000 -0.000 -0.000
 3444.7    0  1.3636  0.160E+00  0.12700  0.12700    0.60  0.000004  0.990  0.127  0.000 -0.000  1.000 -0.000  0.200  0.000 -0.000  0.000 -0.000  0.000
 2777.0    0  1.3064  0.473E-01  0.12700  0.12700    0.60  0.000002  0.990  0.127  0.000  0.000  1.000  0.000  0.200  0.000 -0.000 -0.000 -0.000  0.000
 2320.2    0  1.3633  0.406E-02  0.12700  0.12700    0.60  0.000000  0.990  0.127  0.000  0.000  1.000  0.000  0.200  0.000 -0.000  0.000  0.000  0.000
 2044.2    0  1.3818  0.589E-03  0.12700  0.12700    0.60  0.000000  0.990  0.127  0.000  0.000  1.000  0.000  0.200  0.000 -0.000 -0.000  0.000  0.000
 1778.4    0  1.3930  0.619E-03  0.12700  0.12700    0.60  0.000000  0.990  0.127  0.000  0.000  1.000  0.000  0.500  0.000 -0.000 -0.000  0.000 -0.000
 1455.2    0  1.4048  0.128E-03  0.12700  0.12700    0.60  0.000000  0.990  0.127  0.000  0.000  1.000  0.000  0.500  0.000 -0.000 -0.000 -0.000  0.000
 1270.3    0  1.4122  0.181E-04  0.12700  0.12700    0.60  0.000000  0.990  0.127  0.000  0.000  1.000  0.000  0.500  0.000  0.000  0.000 -0.000  0.000
  944.3    0  1.4239  0.174E-05  0.12700  0.12700    0.60  0.000000  0.990  0.127  0.000  0.000  1.000  0.000  0.500  0.000  0.000 -0.000  0.000  0.000
  693.5    0  1.4282  0.185E-07  0.12700  0.12700    0.60  0.000000  0.990  0.127  0.007  0.000  1.000  0.000  0.500  0.000  0.000  0.000  0.000 -0.000
  527.1    0  1.4306  0.959E-08  0.12700  0.12700    0.60  0.000000  0.990  0.127  0.030  0.000  1.000  0.000  0.500  0.000  0.000 -0.000 -0.000 -0.000
  399.8    0  1.4400  0.100E-07  0.12700  0.12700    0.60  0.000000  0.990  0.127  0.066  0.000  1.000  0.000  0.500  0.000  0.000 -0.000 -0.000  0.000
  329.1    0  1.4587  0.100E-07  0.12700  0.12700    0.60  0.000000  0.990  0.127  0.121  0.000  1.000  0.000  0.500  0.000  0.000  0.000 -0.000  0.000
  229.8    0  1.4860  0.100E-07  0.12700  0.12700    0.60  0.000000  0.990  0.127  0.314  0.000  1.000  0.000  0.500  0.000  0.000  0.000  0.000 -0.000
 7082.2    0  1.2350  0.149E+00  0.12700  0.12700    0.60  0.000002  0.990  0.127  0.000  0.000  1.000  0.000  0.500  0.000 -0.000  0.000  0.000 -0.000
  300.0   50  1.3920  0.139E-07  0.12700  0.19036    0.60  0.000000  0.990  0.190  0.242  0.000  1.000  0.000  0.500  0.000  0.000  0.000 -0.000  0.000
  400.0   50  1.3750  0.476E-08  0.12700  0.19036    0.60  0.000000  0.990  0.190  0.265  0.000  1.000  0.000  0.500  0.000  0.000  0.000 -0.000  0.000
  440.0   50  1.3716  0.419E-08  0.12700  0.19036    0.60  0.000000  0.990  0.190  0.232  0.000  1.000  0.000  0.500  0.000  0.000  0.000 -0.000  0.000
  500.0   50  1.3690  0.421E-08  0.12700  0.19036    0.60  0.000000  0.990  0.190  0.168  0.000  1.000  0.000  0.500  0.000  0.000  0.000 -0.000 -0.000
  550.0   50  1.3680  0.483E-08  0.12700  0.19036    0.60  0.000000  0.990  0.190  0.116  0.000  1.000  0.000  0.500  0.000  0.000  0.000 -0.000 -0.000
  600.0   50  1.3670  0.123E-07  0.12700  0.19036    0.60  0.000000  0.990  0.190  0.038  0.000  1.000  0.000  0.500  0.000  0.000  0.000 -0.000  0.000
  675.0   50  1.3660  0.209E-07  0.12700  0.19036    0.60  0.000000  0.990  0.190  0.016  0.000  1.000  0.000  0.500  0.000  0.000  0.000  0.000  0.000
  800.0   50  1.3640  0.111E-06  0.12700  0.19036    0.60  0.000000  0.990  0.190  0.002  0.000  1.000  0.000  0.500  0.000  0.000 -0.000  0.000 -0.000
  870.0   50  1.3633  0.101E-05  0.12700  0.19036    0.60  0.000000  0.990  0.190  0.000  0.000  1.000  0.000  0.500  0.000  0.000  0.000 -0.000 -0.000
 1000.0   50  1.3610  0.240E-05  0.12700  0.19036    0.60  0.000000  0.990  0.190  0.000  0.000  1.000  0.000  0.500  0.000  0.000  0.000  0.000  0.000
 1020.0   50  1.3605  0.456E-05  0.12700  0.19036    0.60  0.000000  0.990  0.190  0.000  0.000  1.000  0.000  0.500  0.000  0.000 -0.000 -0.000  0.000
55555.6   50  1.6630  0.284E+00  0.12700  0.19036    0.60  0.000001  0.990  0.190  0.000 -0.000  1.000 -0.000  0.500  0.000 -0.000 -0.000 -0.000  0.000
23529.4   50  1.6596  0.240E+00  0.12700  0.19036    0.60  0.000002  0.990  0.190  0.000 -0.000  1.000 -0.000  0.500  0.000 -0.000  0.000 -0.000 -0.000
17699.1   50  1.5819  0.359E+00  0.12700  0.19036    0.60  0.000005  0.990  0.190  0.000 -0.000  1.000 -0.000  0.500  0.000 -0.000 -0.000  0.000  0.000
15037.6   50  1.3838  0.335E+00  0.12700  0.19036    0.60  0.000007  0.990  0.190  0.000 -0.000  1.000 -0.000  0.200  0.000 -0.000 -0.000 -0.000 -0.000
13157.9   50  1.3430  0.275E+00  0.12700  0.19036    0.60  0.000006  0.990  0.190  0.000  0.000  1.000  0.000  0.500  0.000 -0.000 -0.000 -0.000  0.000
11111.1   50  1.3450  0.241E+00  0.12700  0.19036    0.60  0.000007  0.990  0.190  0.000  0.000  1.000  0.000  0.200  0.000 -0.000  0.000 -0.000  0.000
 9708.7   50  1.4557  0.295E+00  0.12700  0.19036    0.60  0.000009  0.990  0.190  0.000  0.000  1.000  0.000  0.200  0.000 -0.000  0.000  0.000  0.000
 8849.6   50  1.3928  0.280E+00  0.12700  0.19036    0.60  0.000009  0.990  0.190  0.000  0.000  1.000  0.000  0.200  0.000 -0.000  0.000 -0.000  0.000
 7782.1   50  1.2406  0.173E+00  0.12700  0.19036    0.60  0.000007  0.990  0.190  0.000 -0.000  1.000 -0.000  0.500  0.000 -0.000 -0.000 -0.000  0.000
 6968.6   50  1.2906  0.631E-01  0.12700  0.19036    0.60  0.000003  0.990  0.190  0.000 -0.000  1.000 -0.000  0.200  0.000 -0.000  0.000  0.000  0.000
 6097.6   50  1.3559  0.131E+00  0.12700  0.19036    0.60  0.000006  0.990  0.190  0.000 -0.000  1.000 -0.000  0.200  0.000 -0.000  0.000 -0.000 -0.000
 5154.6   50  1.3318  0.514E-01  0.12700  0.19036    0.60  0.000003  0.990  0.190  0.000  0.000  1.000  0.000  0.200  0.000 -0.000 -0.000 -0.000 -0.000
 4618.9   50  1.3484  0.517E-01  0.12700  0.19036    0.60  0.000003  0.990  0.190  0.000  0.000  1.000  0.000  0.200  0.000 -0.000  0.000 -0.000 -0.000
 4319.7   50  1.3538  0.504E-01  0.12700  0.19036    0.60  0.000004  0.990  0.190  0.000  0.000  1.000  0.000  0.200  0.000 -0.000  0.000 -0.000  0.000
 4016.1   50  1.3622  0.480E-01  0.12700  0.19036    0.60  0.000004  0.990  0.190  0.000  0.000  1.000  0.000  0.200  0.000 -0.000  0.000  0.000  0.000
 3418.8   50  1.3941  0.689E-01  0.12700  0.19036    0.60  0.000006  0.990  0.190  0.000  0.000  1.000  0.000  0.200  0.000 -0.000  0.000 -0.000  0.000
 3444.7   50  1.3926  0.668E-01  0.12700  0.19036    0.60  0.000006  0.990  0.190  0.000  0.000  1.000  0.000  0.200  0.000 -0.000  0.000 -0.000  0.000
 2777.0   50  1.2890  0.162E+00  0.12700  0.19036    0.60  0.000018  0.990  0.190  0.000  0.000  1.000  0.000  0.200  0.000 -0.000  0.000  0.000  0.000
 2320.2   50  1.3070  0.294E-01  0.12700  0.19036    0.60  0.000004  0.990  0.190  0.000  0.000  1.000  0.000  0.500  0.000 -0.000  0.000 -0.000  0.000
 2044.2   50  1.3314  0.264E-02  0.12700  0.19036    0.60  0.000000  0.990  0.190  0.000  0.000  1.000  0.000  0.500  0.000  0.000  0.000 -0.000  0.000
 1778.4   50  1.3412  0.901E-03  0.12700  0.19036    0.60  0.000000  0.990  0.190  0.000  0.000  1.000  0.000  0.500  0.000  0.000  0.000 -0.000  0.000
 1455.2   50  1.3511  0.321E-03  0.12700  0.19036    0.60  0.000000  0.990  0.190  0.000  0.000  1.000  0.000  0.500  0.000  0.000 -0.000 -0.000  0.000
 1270.3   50  1.3546  0.500E-04  0.12700  0.19036    0.60  0.000000  0.990  0.190  0.000  0.000  1.000  0.000  0.500  0.000  0.000  0.000  0.000 -0.000
  944.3   50  1.3623  0.524E-05  0.12700  0.19036    0.60  0.000000  0.990  0.190  0.000  0.000  1.000  0.000  0.500  0.000  0.000 -0.000 -0.000  0.000
  693.5   50  1.3660  0.264E-07  0.12700  0.19036    0.60  0.000000  0.990  0.190  0.012  0.000  1.000  0.000  0.500  0.000  0.000  0.000 -0.000  0.000
  527.1   50  1.3684  0.384E-08  0.12700  0.19036    0.60  0.000000  0.990  0.190  0.158  0.000  1.000  0.000  0.500  0.000  0.000 -0.000 -0.000 -0.000
  399.8   50  1.3750  0.477E-08  0.12700  0.19036    0.60  0.000000  0.990  0.190  0.265  0.000  1.000  0.000  0.500  0.000  0.000  0.000 -0.000 -0.000
  329.1   50  1.3855  0.958E-08  0.12700  0.19036    0.60  0.000000  0.990  0.190  0.254  0.000  1.000  0.000  0.500  0.000  0.000 -0.000 -0.000  0.000
  229.8   50  1.4079  0.267E-07  0.12700  0.19036    0.60  0.000000  0.990  0.190  0.287  0.000  1.000  0.000  0.500  0.000  0.000 -0.000  0.000 -0.000
 7082.2   50  1.2833  0.716E-01  0.12700  0.19036    0.60  0.000003  0.990  0.190  0.000  0.000  1.000  0.000  0.200  0.000 -0.000 -0.000 -0.000 -0.000
  300.0   70  1.3800  0.144E-07  0.12700  0.21236    0.60  0.000000  0.990  0.212  0.287  0.000  1.000  0.000  0.500  0.000  0.000 -0.000  0.000  0.000
  400.0   70  1.3650  0.397E-08  0.12700  0.21236    0.60  0.000000  0.990  0.212  0.362  0.000  1.000  0.000  0.500  0.000  0.000 -0.000  0.000  0.000
  440.0   70  1.3624  0.332E-08  0.12700  0.21236    0.60  0.000000  0.990  0.212  0.334  0.000  1.000  0.000  0.500  0.000  0.000  0.000 -0.000  0.000
  500.0   70  1.3600  0.333E-08  0.12700  0.21236    0.60  0.000000  0.990  0.212  0.252  0.000  1.000  0.000  0.500  0.000  0.000  0.000 -0.000  0.000
  550.0   70  1.3580  0.404E-08  0.12700  0.21236    0.60  0.000000  0.990  0.212  0.171  0.000  1.000  0.000  0.500  0.000  0.000  0.000  0.000 -0.000
  600.0   70  1.3570  0.119E-07  0.12700  0.21236    0.60  0.000000  0.990  0.212  0.051  0.000  1.000  0.000  0.500  0.000  0.000  0.000 -0.000  0.000
  675.0   70  1.3560  0.216E-07  0.12700  0.21236    0.60  0.000000  0.990  0.212  0.020  0.000  1.000  0.000  0.500  0.000  0.000 -0.000 -0.000  0.000
  800.0   70  1.3540  0.115E-06  0.12700  0.21236    0.60  0.000000  0.990  0.212  0.002  0.000  1.000  0.000  0.500  0.000  0.000 -0.000 -0.000 -0.000
  870.0   70  1.3532  0.114E-05  0.12700  0.21236    0.60  0.000000  0.990  0.212  0.000  0.000  1.000  0.000  0.500  0.000  0.000 -0.000 -0.000 -0.000
 1000.0   70  1.3520  0.254E-05  0.12700  0.21236    0.60  0.000000  0.990  0.212  0.000  0.000  1.000  0.000  0.500  0.000  0.000 -0.000  0.000 -0.000
 1020.0   70  1.3517  0.526E-05  0.12700  0.21236    0.60  0.000000  0.990  0.212  0.000  0.000  1.000  0.000  0.500  0.000  0.000 -0.000 -0.000  0.000
55555.6   70  1.6270  0.298E+00  0.12700  0.21236    0.60  0.000002  0.990  0.212  0.000 -0.000  1.000 -0.000  0.500  0.000 -0.000 -0.000  0.000  0.000
23529.4   70  1.6203  0.274E+00  0.12700  0.21236    0.60  0.000004  0.990  0.212  0.000 -0.000  1.000 -0.000  0.500  0.000 -0.000  0.000 -0.000 -0.000
17699.1   70  1.5353  0.378E+00  0.12700  0.21236    0.60  0.000008  0.990  0.212  0.000 -0.000  1.000 -0.000  0.200  0.000 -0.000 -0.000  0.000 -0.000
15037.6   70  1.3536  0.353E+00  0.12700  0.21236    0.60  0.000010  0.990  0.212  0.000  0.000  1.000  0.000  0.200  0.000 -0.000  0.000  0.000  0.000
13157.9   70  1.2917  0.287E+00  0.12700  0.21236    0.60  0.000010  0.990  0.212  0.000  0.000  1.000  0.000  0.200  0.000 -0.000 -0.000 -0.000  0.000
11111.1   70  1.2908  0.204E+00  0.12700  0.21236    0.60  0.000008  0.990  0.212  0.000  0.000  1.000  0.000  0.200  0.000 -0.000  0.000 -0.000  0.000
 9708.7   70  1.3956  0.228E+00  0.12700  0.21236    0.60  0.000010  0.990  0.212  0.000 -0.000  1.000 -0.000  0.200  0.000 -0.000  0.000 -0.000 -0.000
 8849.6   70  1.3591  0.214E+00  0.12700  0.21236    0.60  0.000010  0.990  0.212  0.000 -0.000  1.000 -0.000  0.200  0.000 -0.000  0.000 -0.000 -0.000
 7782.1   70  1.2562  0.136E+00  0.12700  0.21236    0.60  0.000008  0.990  0.212  0.000  0.000  1.000  0.000  0.200  0.000 -0.000  0.000 -0.000  0.000
 6968.6   70  1.2953  0.528E-01  0.12700  0.21236    0.60  0.000003  0.990  0.212  0.000 -0.000  1.000 -0.000  0.200  0.000 -0.000  0.000  0.000  0.000
 6097.6   70  1.3446  0.123E+00  0.12700  0.21236    0.60  0.000008  0.990  0.212  0.000 -0.000  1.000 -0.000  0.200  0.000 -0.000 -0.000 -0.000  0.000
 5154.6   70  1.3303  0.384E-01  0.12700  0.21236    0.60  0.000003  0.990  0.212  0.000 -0.000  1.000 -0.000  0.200  0.000 -0.000  0.000  0.000 -0.000
 4618.9   70  1.3433  0.418E-01  0.12700  0.21236    0.60  0.000004  0.990  0.212  0.000  0.000  1.000  0.000  0.200  0.000 -0.000 -0.000 -0.000 -0.000
 4319.7   70  1.3497  0.392E-01  0.12700  0.21236    0.60  0.000004  0.990  0.212  0.000  0.000  1.000  0.000  0.200  0.000 -0.000  0.000  0.000  0.000
 4016.1   70  1.3592  0.362E-01  0.12700  0.21236    0.60  0.000004  0.990  0.212  0.000  0.000  1.000  0.000  0.200  0.000 -0.000 -0.000 -0.000  0.000
 3418.8   70  1.3998  0.552E-01  0.12700  0.21236    0.60  0.000007  0.990  0.212  0.000  0.000  1.000  0.000  0.200  0.000 -0.000  0.000  0.000 -0.000
 3444.7   70  1.3973  0.528E-01  0.12700  0.21236    0.60  0.000006  0.990  0.212  0.000  0.000  1.000  0.000  0.200  0.000 -0.000 -0.000 -0.000  0.000
 2777.0   70  1.2863  0.179E+00  0.12700  0.21236    0.60  0.000028  0.990  0.212  0.000  0.000  1.000  0.000  0.500  0.000 -0.000  0.000 -0.000 -0.000
 2320.2   70  1.2984  0.333E-01  0.12700  0.21236    0.60  0.000006  0.990  0.212  0.000  0.000  1.000  0.000  0.500  0.000 -0.000  0.000  0.000  0.000
 2044.2   70  1.3233  0.314E-02  0.12700  0.21236    0.60  0.000001  0.990  0.212  0.000  0.000  1.000  0.000  0.500  0.000  0.000 -0.000 -0.000  0.000
 1778.4   70  1.3332  0.945E-03  0.12700  0.21236    0.60  0.000000  0.990  0.212  0.000  0.000  1.000  0.000  0.500  0.000  0.000 -0.000 -0.000  0.000
 1455.2   70  1.3429  0.350E-03  0.12700  0.21236    0.60  0.000000  0.990  0.212  0.000  0.000  1.000  0.000  0.500  0.000  0.000  0.000 -0.000 -0.000
 1270.3   70  1.3456  0.549E-04  0.12700  0.21236    0.60  0.000000  0.990  0.212  0.000  0.000  1.000  0.000  0.500  0.000  0.000 -0.000 -0.000  0.000
  944.3   70  1.3527  0.578E-05  0.12700  0.21236    0.60  0.000000  0.990  0.212  0.000  0.000  1.000  0.000  0.500  0.000  0.000 -0.000 -0.000  0.000
  693.5   70  1.3560  0.276E-07  0.12700  0.21236    0.60  0.000000  0.990  0.212  0.015  0.000  1.000  0.000  0.500  0.000  0.000 -0.000  0.000  0.000
  527.1   70  1.3588  0.296E-08  0.12700  0.21236    0.60  0.000000  0.990  0.212  0.243  0.000  1.000  0.000  0.500  0.000  0.000 -0.000 -0.000 -0.000
  399.8   70  1.3650  0.398E-08  0.12700  0.21236    0.60  0.000000  0.990  0.212  0.362  0.000  1.000  0.000  0.500  0.000  0.000  0.000 -0.000  0.000
  329.1   70  1.3740  0.948E-08  0.12700  0.21236    0.60  0.000000  0.990  0.212  0.309  0.000  1.000  0.000  0.500  0.000  0.000 -0.000 -0.000  0.000
  229.8   70  1.3960  0.293E-07  0.12700  0.21236    0.60  0.000000  0.990  0.212  0.324  0.000  1.000  0.000  0.500  0.000  0.000  0.000  0.000  0.000
 7082.2   70  1.2907  0.599E-01  0.12700  0.21236    0.60  0.000004  0.990  0.212  0.000 -0.000  1.000 -0.000  0.200  0.000 -0.000 -0.000 -0.000 -0.000
  300.0   80  1.3740  0.148E-07  0.12700  0.22831    0.60  0.000000  0.990  0.228  0.320  0.000  1.000  0.000  0.500  0.000  0.000 -0.000 -0.000  0.000
  400.0   80  1.3600  0.352E-08  0.12700  0.22831    0.60  0.000000  0.990  0.228  0.436  0.000  1.000  0.000  0.500  0.000  0.000  0.000 -0.000 -0.000
  440.0   80  1.3566  0.283E-08  0.12700  0.22831    0.60  0.000000  0.990  0.228  0.415  0.000  1.000  0.000  0.500  0.000  0.000 -0.000 -0.000 -0.000
  500.0   80  1.3550  0.284E-08  0.12700  0.22831    0.60  0.000000  0.990  0.228  0.323  0.000  1.000  0.000  0.500  0.000  0.000 -0.000  0.000 -0.000
  550.0   80  1.3530  0.360E-08  0.12700  0.22831    0.60  0.000000  0.990  0.228  0.218  0.000  1.000  0.000  0.500  0.000  0.000 -0.000  0.000 -0.000
  600.0   80  1.3520  0.117E-07  0.12700  0.22831    0.60  0.000000  0.990  0.228  0.062  0.000  1.000  0.000  0.500  0.000  0.000  0.000 -0.000 -0.000
