 h2so4 RRTMG LUT interpolated from GADS (DAR 09/2013)
 V0.1 - contains Fast-J wavelengths but is the same as the original jv_spec.dat values
  w(nm)   RH       N         iK    RgDry    RgWet      Sg         Q  Alpha  r-eff ss-alb  g-sym  pi(0)  pi(1)  pi(2)  pi(3)  pi(4)  pi(5)  pi(6)  pi(7)
  300.0    0  1.4690  0.100E-07  1.28011  1.28011    0.60  0.000001  0.990  1.280  0.995  0.000  1.000  0.000  0.500  0.000  0.000  0.000 -0.000 -0.000
  400.0    0  1.4400  0.100E-07  1.28011  1.28011    0.60  0.000000  0.990  1.280  0.986  0.000  1.000  0.000  0.500  0.000  0.000  0.000  0.000 -0.000
  440.0    0  1.4330  0.998E-08  1.28011  1.28011    0.60  0.000000  0.990  1.280  0.981  0.000  1.000  0.000  0.500  0.000  0.000  0.000  0.000  0.000
  500.0    0  1.4310  0.100E-07  1.28011  1.28011    0.60  0.000000  0.990  1.280  0.973  0.000  1.000  0.000  0.500  0.000  0.000  0.000  0.000  0.000
  550.0    0  1.4300  0.100E-07  1.28011  1.28011    0.60  0.000000  0.990  1.280  0.964  0.000  1.000  0.000  0.500  0.000  0.000  0.000 -0.000 -0.000
  600.0    0  1.4290  0.147E-07  1.28011  1.28011    0.60  0.000000  0.990  1.280  0.933  0.000  1.000  0.000  0.500  0.000  0.000  0.000  0.000  0.000
  675.0    0  1.4286  0.161E-07  1.28011  1.28011    0.60  0.000000  0.990  1.280  0.899  0.000  1.000  0.000  0.500  0.000  0.000  0.000 -0.000  0.000
  800.0    0  1.4260  0.863E-07  1.28011  1.28011    0.60  0.000000  0.990  1.280  0.495  0.000  1.000  0.000  0.500  0.000  0.000  0.000 -0.000  0.000
  870.0    0  1.4254  0.181E-06  1.28011  1.28011    0.60  0.000000  0.990  1.280  0.266  0.000  1.000  0.000  0.500  0.000  0.000  0.000 -0.000 -0.000
 1000.0    0  1.4220  0.153E-05  1.28011  1.28011    0.60  0.000000  0.990  1.280  0.027  0.000  1.000  0.000  0.500  0.000  0.000  0.000 -0.000  0.000
 1020.0    0  1.4213  0.222E-07  1.28011  1.28011    0.60  0.000000  0.990  1.280  0.642  0.000  1.000  0.000  0.500  0.000  0.000  0.000 -0.000 -0.000
55555.6    0  1.9000  0.190E+00  1.28011  1.28011    0.60  0.000204  0.990  1.280  0.000  0.000  1.000  0.000  0.200  0.000 -0.000 -0.000 -0.000 -0.000
23529.4    0  1.9155  0.188E-01  1.28011  1.28011    0.60  0.000047  0.990  1.280  0.000  0.000  1.000  0.000  0.200  0.000 -0.000 -0.000  0.000  0.000
17699.1    0  1.8923  0.236E+00  1.28011  1.28011    0.60  0.000800  0.990  1.280  0.000  0.000  1.000  0.000  0.500  0.000 -0.000 -0.000  0.000 -0.000
15037.6    0  1.5858  0.212E+00  1.28011  1.28011    0.60  0.001087  0.990  1.280  0.000  0.000  1.000  0.000  0.500  0.000 -0.000 -0.000 -0.000 -0.000
13157.9    0  1.6817  0.196E+00  1.28011  1.28011    0.60  0.001065  0.990  1.280  0.000  0.000  1.000  0.000  0.500  0.000 -0.000 -0.000 -0.000 -0.000
11111.1    0  1.7044  0.486E+00  1.28011  1.28011    0.60  0.003019  0.990  1.280  0.000  0.000  1.000  0.000  0.500  0.000  0.000 -0.000 -0.000  0.000
 9708.7    0  1.8565  0.744E+00  1.28011  1.28011    0.60  0.004478  0.990  1.280  0.000  0.000  1.000  0.000  0.500  0.000  0.000 -0.000  0.000  0.000
 8849.6    0  1.6203  0.715E+00  1.28011  1.28011    0.60  0.005835  0.990  1.280  0.000  0.000  1.000  0.000  0.500  0.000  0.000  0.000 -0.000 -0.000
 7782.1    0  1.1366  0.425E+00  1.28011  1.28011    0.60  0.005812  0.990  1.280  0.000  0.000  1.000  0.000  0.500  0.000  0.000  0.000  0.000 -0.000
 6968.6    0  1.2605  0.132E+00  1.28011  1.28011    0.60  0.001844  0.990  1.280  0.000  0.000  1.000  0.000  0.500  0.000  0.000  0.000 -0.000 -0.000
 6097.6    0  1.4291  0.182E+00  1.28011  1.28011    0.60  0.002594  0.990  1.280  0.000  0.000  1.000  0.000  0.500  0.000  0.000  0.000 -0.000  0.000
 5154.6    0  1.3446  0.136E+00  1.28011  1.28011    0.60  0.002432  0.990  1.280  0.000  0.000  1.000  0.000  0.500  0.000  0.000 -0.000 -0.000 -0.000
 4618.9    0  1.3832  0.117E+00  1.28011  1.28011    0.60  0.002274  0.990  1.280  0.000  0.000  1.000  0.000  0.500  0.000  0.000  0.000  0.000 -0.000
 4319.7    0  1.3837  0.124E+00  1.28011  1.28011    0.60  0.002576  0.990  1.280  0.000  0.000  1.000  0.000  0.500  0.000  0.000  0.000 -0.000 -0.000
 4016.1    0  1.3844  0.126E+00  1.28011  1.28011    0.60  0.002814  0.990  1.280  0.000  0.000  1.000  0.000  0.500  0.000  0.000 -0.000 -0.000  0.000
 3418.8    0  1.3572  0.159E+00  1.28011  1.28011    0.60  0.004252  0.990  1.280  0.000  0.000  1.000  0.000  0.500  0.000  0.000 -0.000 -0.000  0.000
 3444.7    0  1.3636  0.160E+00  1.28011  1.28011    0.60  0.004228  0.990  1.280  0.000  0.000  1.000  0.000  0.500  0.000  0.000  0.000 -0.000 -0.000
 2777.0    0  1.3064  0.473E-01  1.28011  1.28011    0.60  0.001610  0.990  1.280  0.000  0.000  1.000  0.000  0.500  0.000  0.000 -0.000 -0.000 -0.000
 2320.2    0  1.3633  0.406E-02  1.28011  1.28011    0.60  0.000159  0.990  1.280  0.000  0.000  1.000  0.000  0.500  0.000  0.000 -0.000 -0.000 -0.000
 2044.2    0  1.3818  0.589E-03  1.28011  1.28011    0.60  0.000026  0.990  1.280  0.000  0.000  1.000  0.000  0.500  0.000  0.000  0.000 -0.000  0.000
 1778.4    0  1.3930  0.619E-03  1.28011  1.28011    0.60  0.000031  0.990  1.280  0.000  0.000  1.000  0.000  0.500  0.000  0.000  0.000 -0.000  0.000
 1455.2    0  1.4048  0.128E-03  1.28011  1.28011    0.60  0.000008  0.990  1.280  0.000  0.000  1.000  0.000  0.500  0.000  0.000  0.000  0.000  0.000
 1270.3    0  1.4122  0.181E-04  1.28011  1.28011    0.60  0.000001  0.990  1.280  0.001  0.000  1.000  0.000  0.500  0.000  0.000  0.000 -0.000  0.000
  944.3    0  1.4239  0.174E-05  1.28011  1.28011    0.60  0.000000  0.990  1.280  0.028  0.000  1.000  0.000  0.500  0.000  0.000  0.000 -0.000 -0.000
  693.5    0  1.4282  0.185E-07  1.28011  1.28011    0.60  0.000000  0.990  1.280  0.876  0.000  1.000  0.000  0.500  0.000  0.000  0.000 -0.000 -0.000
  527.1    0  1.4306  0.959E-08  1.28011  1.28011    0.60  0.000000  0.990  1.280  0.969  0.000  1.000  0.000  0.500  0.000  0.000  0.000  0.000 -0.000
  399.8    0  1.4400  0.100E-07  1.28011  1.28011    0.60  0.000000  0.990  1.280  0.986  0.000  1.000  0.000  0.500  0.000  0.000  0.000 -0.000 -0.000
  329.1    0  1.4587  0.100E-07  1.28011  1.28011    0.60  0.000000  0.990  1.280  0.993  0.000  1.000  0.000  0.500  0.000  0.000  0.000 -0.000  0.000
  229.8    0  1.4860  0.100E-07  1.28011  1.28011    0.60  0.000002  0.990  1.280  0.998  0.000  1.000  0.001  0.500  0.000  0.000  0.000 -0.000 -0.000
 7082.2    0  1.2350  0.149E+00  1.28011  1.28011    0.60  0.002081  0.990  1.280  0.000  0.000  1.000  0.000  0.500  0.000  0.000  0.000 -0.000 -0.000
  300.0   50  1.3920  0.139E-07  1.28011  1.91867    0.60  0.000005  0.990  1.919  0.997  0.000  1.000  0.001  0.500  0.000  0.000  0.000  0.000  0.000
  400.0   50  1.3750  0.476E-08  1.28011  1.91867    0.60  0.000001  0.990  1.919  0.997  0.000  1.000  0.001  0.500  0.000  0.000  0.000  0.000 -0.000
  440.0   50  1.3716  0.419E-08  1.28011  1.91867    0.60  0.000001  0.990  1.919  0.997  0.000  1.000  0.000  0.500  0.000  0.000  0.000 -0.000 -0.000
  500.0   50  1.3690  0.421E-08  1.28011  1.91867    0.60  0.000001  0.990  1.919  0.995  0.000  1.000  0.000  0.500  0.000  0.000  0.000  0.000  0.000
  550.0   50  1.3680  0.483E-08  1.28011  1.91867    0.60  0.000000  0.990  1.919  0.993  0.000  1.000  0.000  0.500  0.000  0.000  0.000  0.000 -0.000
  600.0   50  1.3670  0.123E-07  1.28011  1.91867    0.60  0.000000  0.990  1.919  0.976  0.000  1.000  0.000  0.500  0.000  0.000  0.000  0.000 -0.000
  675.0   50  1.3660  0.209E-07  1.28011  1.91867    0.60  0.000000  0.990  1.919  0.943  0.000  1.000  0.000  0.500  0.000  0.000  0.000 -0.000  0.000
  800.0   50  1.3640  0.111E-06  1.28011  1.91867    0.60  0.000000  0.990  1.919  0.650  0.000  1.000  0.000  0.500  0.000  0.000  0.000  0.000 -0.000
  870.0   50  1.3633  0.101E-05  1.28011  1.91867    0.60  0.000000  0.990  1.919  0.137  0.000  1.000  0.000  0.500  0.000  0.000  0.000 -0.000 -0.000
 1000.0   50  1.3610  0.240E-05  1.28011  1.91867    0.60  0.000001  0.990  1.919  0.041  0.000  1.000  0.000  0.500  0.000  0.000  0.000  0.000 -0.000
 1020.0   50  1.3605  0.456E-05  1.28011  1.91867    0.60  0.000001  0.990  1.919  0.021  0.000  1.000  0.000  0.500  0.000  0.000  0.000 -0.000  0.000
55555.6   50  1.6630  0.284E+00  1.28011  1.91867    0.60  0.001245  0.990  1.919  0.000  0.000  1.000  0.000  0.200  0.000 -0.000 -0.000  0.000 -0.000
23529.4   50  1.6596  0.240E+00  1.28011  1.91867    0.60  0.002496  0.990  1.919  0.000  0.000  1.000  0.000  0.500  0.000 -0.000 -0.000 -0.000 -0.000
17699.1   50  1.5819  0.359E+00  1.28011  1.91867    0.60  0.005258  0.990  1.919  0.000  0.000  1.000  0.000  0.500  0.000  0.000  0.000 -0.000 -0.000
15037.6   50  1.3838  0.335E+00  1.28011  1.91867    0.60  0.006733  0.990  1.919  0.000  0.000  1.000  0.000  0.500  0.000  0.000 -0.000 -0.000  0.000
13157.9   50  1.3430  0.275E+00  1.28011  1.91867    0.60  0.006503  0.990  1.919  0.000  0.000  1.000  0.000  0.500  0.000  0.000 -0.000 -0.000  0.000
11111.1   50  1.3450  0.241E+00  1.28011  1.91867    0.60  0.006737  0.990  1.919  0.000  0.000  1.000  0.000  0.500  0.000  0.000 -0.000 -0.000 -0.000
 9708.7   50  1.4557  0.295E+00  1.28011  1.91867    0.60  0.008709  0.990  1.919  0.000  0.000  1.000  0.000  0.500  0.000  0.000  0.000 -0.000  0.000
 8849.6   50  1.3928  0.280E+00  1.28011  1.91867    0.60  0.009501  0.990  1.919  0.000  0.000  1.000  0.000  0.500  0.000  0.000  0.000 -0.000  0.000
 7782.1   50  1.2406  0.173E+00  1.28011  1.91867    0.60  0.007384  0.990  1.919  0.000  0.000  1.000  0.000  0.500  0.000  0.000 -0.000 -0.000 -0.000
 6968.6   50  1.2906  0.631E-01  1.28011  1.91867    0.60  0.002911  0.990  1.919  0.000  0.000  1.000  0.000  0.500  0.000  0.000  0.000  0.000 -0.000
 6097.6   50  1.3559  0.131E+00  1.28011  1.91867    0.60  0.006618  0.990  1.919  0.000  0.000  1.000  0.000  0.500  0.000  0.000  0.000 -0.000  0.000
 5154.6   50  1.3318  0.514E-01  1.28011  1.91867    0.60  0.003121  0.990  1.919  0.000  0.000  1.000  0.000  0.500  0.000  0.000 -0.000 -0.000 -0.000
 4618.9   50  1.3484  0.517E-01  1.28011  1.91867    0.60  0.003464  0.990  1.919  0.000  0.000  1.000  0.000  0.500  0.000  0.000  0.000  0.000  0.000
 4319.7   50  1.3538  0.504E-01  1.28011  1.91867    0.60  0.003598  0.990  1.919  0.000  0.000  1.000  0.000  0.500  0.000  0.000 -0.000 -0.000  0.000
 4016.1   50  1.3622  0.480E-01  1.28011  1.91867    0.60  0.003665  0.990  1.919  0.000  0.000  1.000  0.000  0.500  0.000  0.000  0.000 -0.000  0.000
 3418.8   50  1.3941  0.689E-01  1.28011  1.91867    0.60  0.006045  0.990  1.919  0.000  0.000  1.000  0.000  0.500  0.000  0.000 -0.000 -0.000  0.000
 3444.7   50  1.3926  0.668E-01  1.28011  1.91867    0.60  0.005823  0.990  1.919  0.000  0.000  1.000  0.000  0.500  0.000  0.000 -0.000 -0.000  0.000
 2777.0   50  1.2890  0.162E+00  1.28011  1.91867    0.60  0.018792  0.990  1.919  0.000  0.000  1.000  0.000  0.500  0.000  0.000  0.000  0.000 -0.000
 2320.2   50  1.3070  0.294E-01  1.28011  1.91867    0.60  0.004030  0.990  1.919  0.000  0.000  1.000  0.000  0.500  0.000  0.000 -0.000 -0.000 -0.000
 2044.2   50  1.3314  0.264E-02  1.28011  1.91867    0.60  0.000404  0.990  1.919  0.000  0.000  1.000  0.000  0.500  0.000  0.000 -0.000 -0.000  0.000
 1778.4   50  1.3412  0.901E-03  1.28011  1.91867    0.60  0.000158  0.990  1.919  0.000  0.000  1.000  0.000  0.500  0.000  0.000 -0.000 -0.000 -0.000
 1455.2   50  1.3511  0.321E-03  1.28011  1.91867    0.60  0.000068  0.990  1.919  0.000  0.000  1.000  0.000  0.500  0.000  0.000  0.000 -0.000  0.000
 1270.3   50  1.3546  0.500E-04  1.28011  1.91867    0.60  0.000012  0.990  1.919  0.001  0.000  1.000  0.000  0.500  0.000  0.000  0.000  0.000  0.000
  944.3   50  1.3623  0.524E-05  1.28011  1.91867    0.60  0.000002  0.990  1.919  0.023  0.000  1.000  0.000  0.500  0.000  0.000  0.000 -0.000  0.000
  693.5   50  1.3660  0.264E-07  1.28011  1.91867    0.60  0.000000  0.990  1.919  0.924  0.000  1.000  0.000  0.500  0.000  0.000  0.000 -0.000  0.000
  527.1   50  1.3684  0.384E-08  1.28011  1.91867    0.60  0.000000  0.990  1.919  0.995  0.000  1.000  0.000  0.500  0.000  0.000  0.000 -0.000 -0.000
  399.8   50  1.3750  0.477E-08  1.28011  1.91867    0.60  0.000001  0.990  1.919  0.997  0.000  1.000  0.001  0.500  0.000  0.000  0.000  0.000 -0.000
  329.1   50  1.3855  0.958E-08  1.28011  1.91867    0.60  0.000003  0.990  1.919  0.997  0.000  1.000  0.001  0.500  0.000  0.000  0.000  0.000  0.000
  229.8   50  1.4079  0.267E-07  1.28011  1.91867    0.60  0.000014  0.990  1.919  0.998  0.001  1.000  0.002  0.500  0.000  0.000  0.000  0.000  0.000
 7082.2   50  1.2833  0.716E-01  1.28011  1.91867    0.60  0.003265  0.990  1.919  0.000  0.000  1.000  0.000  0.500  0.000  0.000  0.000 -0.000  0.000
  300.0   70  1.3800  0.144E-07  1.28011  2.14046    0.60  0.000008  0.990  2.140  0.998  0.000  1.000  0.001  0.500  0.000  0.000  0.000  0.000 -0.000
  400.0   70  1.3650  0.397E-08  1.28011  2.14046    0.60  0.000002  0.990  2.140  0.998  0.000  1.000  0.001  0.500  0.000  0.000  0.000  0.000 -0.000
  440.0   70  1.3624  0.332E-08  1.28011  2.14046    0.60  0.000002  0.990  2.140  0.998  0.000  1.000  0.001  0.500  0.000  0.000  0.000 -0.000  0.000
  500.0   70  1.3600  0.333E-08  1.28011  2.14046    0.60  0.000001  0.990  2.140  0.997  0.000  1.000  0.000  0.500  0.000  0.000  0.000 -0.000 -0.000
  550.0   70  1.3580  0.404E-08  1.28011  2.14046    0.60  0.000001  0.990  2.140  0.995  0.000  1.000  0.000  0.500  0.000  0.000  0.000  0.000  0.000
  600.0   70  1.3570  0.119E-07  1.28011  2.14046    0.60  0.000000  0.990  2.140  0.982  0.000  1.000  0.000  0.500  0.000  0.000  0.000  0.000 -0.000
  675.0   70  1.3560  0.216E-07  1.28011  2.14046    0.60  0.000000  0.990  2.140  0.955  0.000  1.000  0.000  0.500  0.000  0.000  0.000  0.000 -0.000
  800.0   70  1.3540  0.115E-06  1.28011  2.14046    0.60  0.000000  0.990  2.140  0.702  0.000  1.000  0.000  0.500  0.000  0.000  0.000  0.000  0.000
  870.0   70  1.3532  0.114E-05  1.28011  2.14046    0.60  0.000001  0.990  2.140  0.155  0.000  1.000  0.000  0.500  0.000  0.000  0.000  0.000  0.000
 1000.0   70  1.3520  0.254E-05  1.28011  2.14046    0.60  0.000001  0.990  2.140  0.051  0.000  1.000  0.000  0.500  0.000  0.000  0.000 -0.000  0.000
 1020.0   70  1.3517  0.526E-05  1.28011  2.14046    0.60  0.000002  0.990  2.140  0.024  0.000  1.000  0.000  0.500  0.000  0.000  0.000 -0.000  0.000
55555.6   70  1.6270  0.298E+00  1.28011  2.14046    0.60  0.001867  0.990  2.140  0.000  0.000  1.000  0.000  0.200  0.000 -0.000  0.000 -0.000 -0.000
23529.4   70  1.6203  0.274E+00  1.28011  2.14046    0.60  0.004078  0.990  2.140  0.000  0.000  1.000  0.000  0.500  0.000 -0.000 -0.000 -0.000  0.000
17699.1   70  1.5353  0.378E+00  1.28011  2.14046    0.60  0.007973  0.990  2.140  0.000  0.000  1.000  0.000  0.500  0.000  0.000 -0.000 -0.000 -0.000
15037.6   70  1.3536  0.353E+00  1.28011  2.14046    0.60  0.010070  0.990  2.140  0.000  0.000  1.000  0.000  0.500  0.000  0.000  0.000 -0.000  0.000
13157.9   70  1.2917  0.287E+00  1.28011  2.14046    0.60  0.009761  0.990  2.140  0.000  0.000  1.000  0.000  0.500  0.000  0.000  0.000 -0.000  0.000
11111.1   70  1.2908  0.204E+00  1.28011  2.14046    0.60  0.008208  0.990  2.140  0.000  0.000  1.000  0.000  0.500  0.000  0.000  0.000 -0.000 -0.000
 9708.7   70  1.3956  0.228E+00  1.28011  2.14046    0.60  0.009772  0.990  2.140  0.000  0.000  1.000  0.000  0.500  0.000  0.000 -0.000 -0.000  0.000
 8849.6   70  1.3591  0.214E+00  1.28011  2.14046    0.60  0.010325  0.990  2.140  0.000  0.000  1.000  0.000  0.500  0.000  0.000 -0.000 -0.000 -0.000
 7782.1   70  1.2562  0.136E+00  1.28011  2.14046    0.60  0.007976  0.990  2.140  0.000  0.000  1.000  0.000  0.500  0.000  0.000 -0.000 -0.000  0.000
 6968.6   70  1.2953  0.528E-01  1.28011  2.14046    0.60  0.003371  0.990  2.140  0.000  0.000  1.000  0.000  0.500  0.000  0.000  0.000 -0.000  0.000
 6097.6   70  1.3446  0.123E+00  1.28011  2.14046    0.60  0.008693  0.990  2.140  0.000  0.000  1.000  0.000  0.500  0.000  0.000  0.000 -0.000 -0.000
 5154.6   70  1.3303  0.384E-01  1.28011  2.14046    0.60  0.003240  0.990  2.140  0.000  0.000  1.000  0.000  0.500  0.000  0.000 -0.000 -0.000  0.000
 4618.9   70  1.3433  0.418E-01  1.28011  2.14046    0.60  0.003902  0.990  2.140  0.000  0.000  1.000  0.000  0.500  0.000  0.000  0.000  0.000 -0.000
 4319.7   70  1.3497  0.392E-01  1.28011  2.14046    0.60  0.003896  0.990  2.140  0.000  0.000  1.000  0.000  0.500  0.000  0.000  0.000 -0.000 -0.000
 4016.1   70  1.3592  0.362E-01  1.28011  2.14046    0.60  0.003845  0.990  2.140  0.000  0.000  1.000  0.000  0.500  0.000  0.000 -0.000  0.000 -0.000
 3418.8   70  1.3998  0.552E-01  1.28011  2.14046    0.60  0.006698  0.990  2.140  0.000  0.000  1.000  0.000  0.500  0.000  0.000  0.000 -0.000 -0.000
 3444.7   70  1.3973  0.528E-01  1.28011  2.14046    0.60  0.006370  0.990  2.140  0.000  0.000  1.000  0.000  0.500  0.000  0.000 -0.000  0.000 -0.000
 2777.0   70  1.2863  0.179E+00  1.28011  2.14046    0.60  0.028887  0.990  2.140  0.000  0.000  1.000  0.000  0.500  0.000  0.000  0.000 -0.000  0.000
 2320.2   70  1.2984  0.333E-01  1.28011  2.14046    0.60  0.006373  0.990  2.140  0.000  0.000  1.000  0.000  0.500  0.000  0.000  0.000 -0.000  0.000
 2044.2   70  1.3233  0.314E-02  1.28011  2.14046    0.60  0.000671  0.990  2.140  0.000  0.000  1.000  0.000  0.500  0.000  0.000 -0.000  0.000 -0.000
 1778.4   70  1.3332  0.945E-03  1.28011  2.14046    0.60  0.000231  0.990  2.140  0.000  0.000  1.000  0.000  0.500  0.000  0.000  0.000 -0.000  0.000
 1455.2   70  1.3429  0.350E-03  1.28011  2.14046    0.60  0.000104  0.990  2.140  0.000  0.000  1.000  0.000  0.500  0.000  0.000  0.000  0.000  0.000
 1270.3   70  1.3456  0.549E-04  1.28011  2.14046    0.60  0.000019  0.990  2.140  0.001  0.000  1.000  0.000  0.500  0.000  0.000  0.000  0.000  0.000
  944.3   70  1.3527  0.578E-05  1.28011  2.14046    0.60  0.000003  0.990  2.140  0.027  0.000  1.000  0.000  0.500  0.000  0.000  0.000 -0.000 -0.000
  693.5   70  1.3560  0.276E-07  1.28011  2.14046    0.60  0.000000  0.990  2.140  0.938  0.000  1.000  0.000  0.500  0.000  0.000  0.000  0.000 -0.000
  527.1   70  1.3588  0.296E-08  1.28011  2.14046    0.60  0.000001  0.990  2.140  0.997  0.000  1.000  0.000  0.500  0.000  0.000  0.000 -0.000  0.000
  399.8   70  1.3650  0.398E-08  1.28011  2.14046    0.60  0.000002  0.990  2.140  0.998  0.000  1.000  0.001  0.500  0.000  0.000  0.000  0.000  0.000
  329.1   70  1.3740  0.948E-08  1.28011  2.14046    0.60  0.000006  0.990  2.140  0.998  0.000  1.000  0.001  0.500  0.000  0.000  0.000  0.000  0.000
  229.8   70  1.3960  0.293E-07  1.28011  2.14046    0.60  0.000026  0.990  2.140  0.998  0.001  1.000  0.002  0.500  0.000  0.000  0.000  0.000 -0.000
 7082.2   70  1.2907  0.599E-01  1.28011  2.14046    0.60  0.003775  0.990  2.140  0.000  0.000  1.000  0.000  0.500  0.000  0.000  0.000 -0.000  0.000
  300.0   80  1.3740  0.148E-07  1.28011  2.30123    0.60  0.000013  0.990  2.301  0.998  0.000  1.000  0.001  0.500  0.000  0.000  0.000  0.000  0.000
  400.0   80  1.3600  0.352E-08  1.28011  2.30123    0.60  0.000004  0.990  2.301  0.999  0.000  1.000  0.001  0.500  0.000  0.000  0.000 -0.000  0.000
  440.0   80  1.3566  0.283E-08  1.28011  2.30123    0.60  0.000002  0.990  2.301  0.999  0.000  1.000  0.001  0.500  0.000  0.000  0.000  0.000  0.000
  500.0   80  1.3550  0.284E-08  1.28011  2.30123    0.60  0.000001  0.990  2.301  0.998  0.000  1.000  0.000  0.500  0.000  0.000  0.000 -0.000 -0.000
  550.0   80  1.3530  0.360E-08  1.28011  2.30123    0.60  0.000001  0.990  2.301  0.997  0.000  1.000  0.000  0.500  0.000  0.000  0.000 -0.000 -0.000
  600.0   80  1.3520  0.117E-07  1.28011  2.30123    0.60  0.000001  0.990  2.301  0.985  0.000  1.000  0.000  0.500  0.000  0.000  0.000 -0.000 -0.000
